LabVIEW Measurement	
Writer_Version	0.92
Reader_Version	1
Separator	Tab
Multi_Headings	Yes
X_Columns	No
Time_Pref	Relative
Operator	Administrator
Date	2008/03/27
Time	00:46:02.71875
***End_of_Header***	
	
Channels	1	
Samples	500	
Date	2008/03/27	
Time	00:46:02.71875	
X_Dimension	Time	
X0	0.0000000000000000E+0	
Delta_X	1.000000	
***End_of_Header***		
X_Value	Untitled	Comment
	-0.000181
	-0.000194
	-0.000361
	-0.000113
	-0.000349
	-0.000246
	-0.000259
	-0.000341
	-0.000138
	-0.000343
	-0.000276
	-0.000201
	-0.000344
	-0.000188
	-0.000289
	-0.000266
	-0.000201
	-0.000414
	-0.000179
	-0.000291
	-0.000336
	-0.000194
	-0.000369
	-0.000201
	-0.000256
	-0.000359
	-0.000114
	-0.000338
	-0.000256
	-0.000236
	-0.000331
	-0.000194
	-0.000374
	-0.000234
	-0.000244
	-0.000329
	-0.000146
	-0.000371
	-0.000203
	-0.000194
	-0.000388
	-0.000109
	-0.000401
	-0.000239
	-0.000184
	-0.000393
	-0.000171
	-0.000379
	-0.000249
	-0.000209
	-0.000383
	-0.000201
	-0.000376
	-0.000274
	-0.000224
	-0.000429
	-0.000219
	-0.000344
	-0.000316
	-0.000184
	-0.000408
	-0.000234
	-0.000326
	-0.000346
	-0.000158
	-0.000414
	-0.000213
	-0.000339
	-0.000328
	-0.000228
	-0.000421
	-0.000288
	-0.000286
	-0.000343
	-0.000186
	-0.000378
	-0.000269
	-0.000259
	-0.000381
	-0.000184
	-0.000371
	-0.000311
	-0.000253
	-0.000408
	-0.000209
	-0.000418
	-0.000279
	-0.000248
	-0.000409
	-0.000179
	-0.000403
	-0.000299
	-0.000216
	-0.000406
	-0.000196
	-0.000381
	-0.000304
	-0.000226
	-0.000359
	-0.000169
	-0.000351
	-0.000331
	-0.000206
	-0.000459
	-0.000216
	-0.000384
	-0.000349
	-0.000214
	-0.000441
	-0.000251
	-0.000378
	-0.000379
	-0.000211
	-0.000423
	-0.000283
	-0.000356
	-0.000379
	-0.000193
	-0.000433
	-0.000308
	-0.000291
	-0.000389
	-0.000161
	-0.000423
	-0.000303
	-0.000289
	-0.000454
	-0.000159
	-0.000393
	-0.000328
	-0.000301
	-0.000476
	-0.000204
	-0.000393
	-0.000324
	-0.000311
	-0.000473
	-0.000213
	-0.000391
	-0.000344
	-0.000279
	-0.000444
	-0.000194
	-0.000364
	-0.000344
	-0.000236
	-0.000441
	-0.000191
	-0.000358
	-0.000344
	-0.000208
	-0.000423
	-0.000251
	-0.000354
	-0.000369
	-0.000199
	-0.000429
	-0.000214
	-0.000346
	-0.000413
	-0.000203
	-0.000406
	-0.000244
	-0.000323
	-0.000413
	-0.000199
	-0.000408
	-0.000284
	-0.000279
	-0.000429
	-0.000173
	-0.000391
	-0.000236
	-0.000301
	-0.000436
	-0.000181
	-0.000373
	-0.000301
	-0.000294
	-0.000463
	-0.000151
	-0.000374
	-0.000291
	-0.000246
	-0.000484
	-0.000206
	-0.000344
	-0.000343
	-0.000231
	-0.000468
	-0.000214
	-0.000373
	-0.000353
	-0.000258
	-0.000484
	-0.000204
	-0.000338
	-0.000378
	-0.000199
	-0.000433
	-0.000236
	-0.000313
	-0.000389
	-0.000179
	-0.000474
	-0.000273
	-0.000338
	-0.000403
	-0.000204
	-0.000438
	-0.000243
	-0.000311
	-0.000421
	-0.000189
	-0.000469
	-0.000319
	-0.000306
	-0.000486
	-0.000189
	-0.000446
	-0.000299
	-0.000261
	-0.000431
	-0.000218
	-0.000369
	-0.000349
	-0.000228
	-0.000423
	-0.000196
	-0.000359
	-0.000359
	-0.000226
	-0.000431
	-0.000241
	-0.000349
	-0.000419
	-0.000216
	-0.000476
	-0.000276
	-0.000311
	-0.000396
	-0.000191
	-0.000451
	-0.000321
	-0.000331
	-0.000391
	-0.000248
	-0.000441
	-0.000319
	-0.000304
	-0.000421
	-0.000233
	-0.000443
	-0.000311
	-0.000281
	-0.000408
	-0.000228
	-0.000433
	-0.000333
	-0.000266
	-0.000419
	-0.000201
	-0.000393
	-0.000348
	-0.000288
	-0.000403
	-0.000191
	-0.000428
	-0.000346
	-0.000251
	-0.000449
	-0.000211
	-0.000391
	-0.000344
	-0.000234
	-0.000406
	-0.000236
	-0.000349
	-0.000386
	-0.000231
	-0.000431
	-0.000269
	-0.000306
	-0.000401
	-0.000236
	-0.000444
	-0.000266
	-0.000349
	-0.000453
	-0.000239
	-0.000428
	-0.000304
	-0.000331
	-0.000506
	-0.000219
	-0.000439
	-0.000324
	-0.000314
	-0.000449
	-0.000231
	-0.000408
	-0.000316
	-0.000284
	-0.000429
	-0.000264
	-0.000401
	-0.000376
	-0.000274
	-0.000423
	-0.000229
	-0.000376
	-0.000386
	-0.000264
	-0.000463
	-0.000264
	-0.000419
	-0.000389
	-0.000256
	-0.000461
	-0.000243
	-0.000369
	-0.000419
	-0.000251
	-0.000468
	-0.000261
	-0.000346
	-0.000451
	-0.000263
	-0.000449
	-0.000324
	-0.000341
	-0.000481
	-0.000261
	-0.000466
	-0.000339
	-0.000311
	-0.000486
	-0.000283
	-0.000451
	-0.000333
	-0.000323
	-0.000479
	-0.000271
	-0.000436
	-0.000346
	-0.000289
	-0.000491
	-0.000273
	-0.000411
	-0.000399
	-0.000286
	-0.000476
	-0.000326
	-0.000406
	-0.000413
	-0.000268
	-0.000456
	-0.000258
	-0.000384
	-0.000416
	-0.000244
	-0.000424
	-0.000294
	-0.000344
	-0.000454
	-0.000218
	-0.000489
	-0.000341
	-0.000406
	-0.000513
	-0.000306
	-0.000498
	0.123161
	0.365680
	0.708105
	1.163845
	1.736278
	2.285783
	2.810613
	3.305890
	3.761827
	4.189009
	4.594433
	4.980284
	5.345996
	5.688123
	6.003718
	6.295342
	6.558740
	6.809314
	7.051171
	7.287195
	7.517733
	7.746501
	7.971211
	8.190364
	8.409297
	8.625250
	8.841575
	9.056076
	9.268410
	9.476835
	9.688065
	9.899799
	10.110316
	10.317835
	10.522117
	10.722715
	10.921301
	11.115095
	11.299099
	11.467814
	11.619358
	11.754204
	11.878583
	11.993431
	12.100821
	12.202229
	12.298466
	12.392686
	12.483286
	12.570701
	12.654574
	12.735287
	12.814945
	12.892722
	12.968094
	13.040710
	13.112356
	13.182319
	13.250948
	13.317146
	13.382376
	13.455991
	13.517305
	13.577568
	13.636893
	13.694755
	13.751838
	13.807483
	13.861837
	13.915472
	13.967840
	14.019428
	14.069823
	14.118545
	14.166815
	14.213949
	14.260209
	14.305308
	14.349016
	14.392270
	14.434531
	14.476156
	14.516973
	14.556952
	14.596487
	14.634897
	14.673173
	14.710439
	14.746786
	14.782520
	14.817280
	14.851983
	14.885625
	14.918575
	14.951379
	14.983271
	15.015188
	15.046542
	15.077241
	15.107699
	15.137483
	15.167035
	15.195970
	15.224568
	15.252787
	15.280477
	15.307831
	15.334700
	15.361480
	15.387659
	15.413279
	15.438737
	15.463703
	15.488575
	15.513182
	15.537174
	15.561382
	15.585154
	15.608747
	15.632029
	15.654759
	15.677666
	15.699833
	15.721905
	15.743718
	15.765122
	15.786432
	15.807480

